SpectraSuite Data File
++++++++++++++++++++++++++++++++++++
Date: Fri Oct 24 10:18:19 CEST 2014
User: opid29s
Dark Spectrum Present: Yes
Reference Spectrum Present: Yes
Number of Sampled Component Spectra: 1
Spectrometers: QEPB0157
Integration Time (usec): 700000 (QEPB0157)
Spectra Averaged: 1 (QEPB0157)
Boxcar Smoothing: 0 (QEPB0157)
Correct for Electrical Dark: Yes (QEPB0157)
Strobe/Lamp Enabled: No (QEPB0157)
Correct for Detector Non-linearity: No (QEPB0157)
Correct for Stray Light: No (QEPB0157)
Number of Pixels in Processed Spectrum: 1044
>>>>>Begin Processed Spectral Data<<<<<
199.56	0.671
200.36	0.673
201.16	0.827
201.96	0.812
202.76	0.666
203.56	0.892
204.36	0.753
205.16	0.740
205.96	0.789
206.76	0.751
207.55	0.817
208.35	0.747
209.15	0.847
209.95	0.892
210.75	0.815
211.55	0.864
212.35	0.806
213.15	0.892
213.94	0.871
214.74	0.907
215.54	0.885
216.34	0.949
217.14	0.997
217.94	1.011
218.73	1.011
219.53	1.081
220.33	1.153
221.13	1.212
221.93	1.221
222.72	1.255
223.52	1.161
224.32	1.311
225.12	1.308
225.91	1.348
226.71	1.414
227.51	1.565
228.31	1.523
229.10	1.511
229.90	1.576
230.70	1.770
231.49	1.865
232.29	1.829
233.09	1.821
233.89	2.010
234.68	1.953
235.48	2.130
236.28	2.008
237.07	2.117
237.87	2.261
238.67	2.115
239.46	2.138
240.26	2.213
241.05	2.298
241.85	2.347
242.65	2.313
243.44	2.357
244.24	2.441
245.03	2.327
245.83	2.384
246.63	2.421
247.42	2.506
248.22	2.463
249.01	2.592
249.81	2.457
250.60	2.540
251.40	2.559
252.19	2.527
252.99	2.463
253.78	2.492
254.58	2.551
255.37	2.575
256.17	2.457
256.96	2.570
257.76	2.574
258.55	2.413
259.35	2.556
260.14	2.648
260.94	2.578
261.73	2.592
262.53	2.646
263.32	2.597
264.12	2.539
264.91	2.595
265.70	2.657
266.50	2.618
267.29	2.534
268.09	2.676
268.88	2.689
269.67	2.564
270.47	2.623
271.26	2.664
272.05	2.531
272.85	2.455
273.64	2.569
274.44	2.484
275.23	2.507
276.02	2.530
276.81	2.568
277.61	2.559
278.40	2.631
279.19	2.483
279.99	2.362
280.78	2.434
281.57	2.433
282.37	2.446
283.16	2.563
283.95	2.519
284.74	2.553
285.54	2.434
286.33	2.455
287.12	2.549
287.91	2.445
288.70	2.422
289.50	2.480
290.29	2.463
291.08	2.554
291.87	2.559
292.66	2.628
293.46	2.517
294.25	2.505
295.04	2.394
295.83	2.527
296.62	2.429
297.41	2.465
298.21	2.417
299.00	2.456
299.79	2.375
300.58	2.579
301.37	2.452
302.16	2.328
302.95	2.484
303.74	2.492
304.53	2.549
305.32	2.385
306.12	2.566
306.91	2.603
307.70	2.559
308.49	2.358
309.28	2.451
310.07	2.464
310.86	2.413
311.65	2.434
312.44	2.494
313.23	2.482
314.02	2.453
314.81	2.484
315.60	2.313
316.39	2.306
317.18	2.509
317.97	2.410
318.76	2.398
319.55	2.315
320.34	2.282
321.13	2.359
321.91	2.206
322.70	2.646
323.49	2.246
324.28	2.303
325.07	2.232
325.86	2.229
326.65	2.292
327.44	2.315
328.23	2.453
329.01	2.282
329.80	2.293
330.59	2.345
331.38	2.337
332.17	2.251
332.96	2.301
333.75	2.368
334.53	2.277
335.32	2.364
336.11	2.240
336.90	2.349
337.69	2.194
338.47	2.262
339.26	2.231
340.05	2.184
340.84	2.363
341.62	2.310
342.41	2.311
343.20	2.193
343.99	2.197
344.77	2.276
345.56	2.157
346.35	2.281
347.14	2.323
347.92	2.218
348.71	2.211
349.50	2.376
350.28	2.152
351.07	2.220
351.86	2.297
352.64	2.254
353.43	2.240
354.22	2.143
355.00	2.228
355.79	2.182
356.58	2.218
357.36	2.243
358.15	2.216
358.93	2.265
359.72	2.353
360.51	2.289
361.29	2.311
362.08	2.260
362.86	2.299
363.65	2.241
364.43	2.267
365.22	2.298
366.01	2.393
366.79	2.432
367.58	2.301
368.36	2.316
369.15	2.312
369.93	2.212
370.72	2.279
371.50	2.300
372.29	2.305
373.07	2.280
373.86	2.294
374.64	2.371
375.43	2.348
376.21	2.457
376.99	2.375
377.78	2.470
378.56	2.327
379.35	2.398
380.13	2.372
380.92	2.441
381.70	2.339
382.48	2.469
383.27	2.390
384.05	2.523
384.84	2.403
385.62	2.463
386.40	2.367
387.19	2.415
387.97	2.322
388.75	2.282
389.54	2.290
390.32	2.374
391.10	2.316
391.89	2.267
392.67	2.346
393.45	2.318
394.24	2.261
395.02	2.170
395.80	2.185
396.58	2.257
397.37	2.194
398.15	2.279
398.93	2.183
399.71	2.189
400.50	2.176
401.28	2.151
402.06	2.088
402.84	2.080
403.62	2.080
404.41	2.064
405.19	2.003
405.97	1.977
406.75	1.948
407.53	1.935
408.32	1.900
409.10	1.882
409.88	1.847
410.66	1.825
411.44	1.793
412.22	1.786
413.00	1.786
413.79	1.746
414.57	1.725
415.35	1.694
416.13	1.656
416.91	1.649
417.69	1.597
418.47	1.594
419.25	1.561
420.03	1.556
420.81	1.499
421.59	1.485
422.37	1.458
423.15	1.418
423.93	1.392
424.72	1.368
425.50	1.336
426.28	1.314
427.06	1.282
427.84	1.253
428.62	1.230
429.39	1.215
430.17	1.190
430.95	1.162
431.73	1.138
432.51	1.109
433.29	1.097
434.07	1.083
434.85	1.044
435.63	1.020
436.41	1.002
437.19	0.979
437.97	0.960
438.75	0.949
439.53	0.922
440.30	0.903
441.08	0.895
441.86	0.870
442.64	0.856
443.42	0.840
444.20	0.828
444.98	0.814
445.75	0.800
446.53	0.794
447.31	0.779
448.09	0.770
448.87	0.749
449.64	0.740
450.42	0.737
451.20	0.726
451.98	0.715
452.76	0.706
453.53	0.693
454.31	0.687
455.09	0.678
455.87	0.672
456.64	0.669
457.42	0.660
458.20	0.658
458.97	0.649
459.75	0.646
460.53	0.636
461.31	0.631
462.08	0.630
462.86	0.626
463.64	0.623
464.41	0.619
465.19	0.616
465.96	0.612
466.74	0.609
467.52	0.601
468.29	0.602
469.07	0.597
469.85	0.592
470.62	0.590
471.40	0.591
472.17	0.587
472.95	0.586
473.73	0.590
474.50	0.583
475.28	0.582
476.05	0.585
476.83	0.586
477.60	0.579
478.38	0.577
479.15	0.572
479.93	0.575
480.70	0.572
481.48	0.568
482.25	0.570
483.03	0.568
483.80	0.570
484.58	0.565
485.35	0.568
486.13	0.570
486.90	0.566
487.68	0.561
488.45	0.559
489.23	0.562
490.00	0.562
490.77	0.564
491.55	0.562
492.32	0.564
493.10	0.563
493.87	0.558
494.64	0.559
495.42	0.558
496.19	0.553
496.96	0.557
497.74	0.566
498.51	0.561
499.29	0.561
500.06	0.559
500.83	0.562
501.61	0.550
502.38	0.550
503.15	0.550
503.92	0.559
504.70	0.552
505.47	0.551
506.24	0.553
507.02	0.553
507.79	0.555
508.56	0.552
509.33	0.554
510.11	0.552
510.88	0.554
511.65	0.552
512.42	0.554
513.19	0.557
513.97	0.549
514.74	0.553
515.51	0.552
516.28	0.552
517.05	0.552
517.83	0.548
518.60	0.554
519.37	0.549
520.14	0.560
520.91	0.552
521.68	0.545
522.45	0.546
523.23	0.548
524.00	0.547
524.77	0.541
525.54	0.555
526.31	0.548
527.08	0.552
527.85	0.554
528.62	0.552
529.39	0.547
530.16	0.547
530.93	0.546
531.70	0.541
532.47	0.544
533.24	0.546
534.01	0.546
534.78	0.547
535.55	0.548
536.32	0.549
537.09	0.552
537.86	0.544
538.63	0.544
539.40	0.539
540.17	0.541
540.94	0.540
541.71	0.538
542.48	0.542
543.25	0.541
544.02	0.543
544.79	0.542
545.56	0.539
546.33	0.544
547.10	0.541
547.86	0.544
548.63	0.544
549.40	0.538
550.17	0.540
550.94	0.541
551.71	0.547
552.48	0.535
553.24	0.543
554.01	0.543
554.78	0.539
555.55	0.545
556.32	0.537
557.09	0.538
557.85	0.541
558.62	0.539
559.39	0.540
560.16	0.539
560.92	0.538
561.69	0.536
562.46	0.538
563.23	0.537
563.99	0.544
564.76	0.539
565.53	0.537
566.30	0.534
567.06	0.539
567.83	0.538
568.60	0.539
569.36	0.539
570.13	0.537
570.90	0.537
571.66	0.535
572.43	0.533
573.20	0.530
573.96	0.535
574.73	0.537
575.50	0.530
576.26	0.533
577.03	0.532
577.79	0.531
578.56	0.532
579.33	0.532
580.09	0.533
580.86	0.531
581.62	0.535
582.39	0.531
583.15	0.531
583.92	0.529
584.68	0.529
585.45	0.533
586.21	0.527
586.98	0.527
587.75	0.530
588.51	0.532
589.28	0.532
590.04	0.532
590.80	0.531
591.57	0.533
592.33	0.534
593.10	0.533
593.86	0.530
594.63	0.527
595.39	0.531
596.16	0.532
596.92	0.529
597.68	0.529
598.45	0.528
599.21	0.528
599.98	0.526
600.74	0.528
601.50	0.528
602.27	0.531
603.03	0.526
603.79	0.526
604.56	0.527
605.32	0.527
606.09	0.527
606.85	0.528
607.61	0.534
608.37	0.531
609.14	0.535
609.90	0.534
610.66	0.528
611.43	0.530
612.19	0.528
612.95	0.525
613.71	0.532
614.48	0.530
615.24	0.534
616.00	0.535
616.76	0.534
617.53	0.535
618.29	0.531
619.05	0.534
619.81	0.535
620.57	0.526
621.34	0.526
622.10	0.522
622.86	0.525
623.62	0.527
624.38	0.526
625.14	0.529
625.91	0.530
626.67	0.531
627.43	0.528
628.19	0.528
628.95	0.526
629.71	0.527
630.47	0.527
631.23	0.529
631.99	0.528
632.76	0.525
633.52	0.527
634.28	0.528
635.04	0.530
635.80	0.529
636.56	0.530
637.32	0.530
638.08	0.530
638.84	0.534
639.60	0.532
640.36	0.527
641.12	0.532
641.88	0.533
642.64	0.534
643.40	0.529
644.16	0.532
644.92	0.531
645.68	0.528
646.44	0.530
647.20	0.529
647.95	0.526
648.71	0.529
649.47	0.527
650.23	0.525
650.99	0.525
651.75	0.524
652.51	0.523
653.27	0.527
654.03	0.526
654.78	0.526
655.54	0.526
656.30	0.529
657.06	0.525
657.82	0.525
658.58	0.524
659.33	0.521
660.09	0.525
660.85	0.528
661.61	0.530
662.37	0.529
663.12	0.527
663.88	0.526
664.64	0.525
665.40	0.521
666.15	0.523
666.91	0.519
667.67	0.523
668.43	0.525
669.18	0.525
669.94	0.527
670.70	0.525
671.45	0.527
672.21	0.529
672.97	0.525
673.73	0.522
674.48	0.520
675.24	0.524
676.00	0.521
676.75	0.520
677.51	0.520
678.26	0.525
679.02	0.524
679.78	0.521
680.53	0.520
681.29	0.528
682.04	0.526
682.80	0.524
683.56	0.520
684.31	0.523
685.07	0.521
685.82	0.515
686.58	0.516
687.33	0.518
688.09	0.518
688.84	0.520
689.60	0.518
690.35	0.522
691.11	0.525
691.86	0.524
692.62	0.528
693.37	0.526
694.13	0.527
694.88	0.521
695.64	0.520
696.39	0.520
697.15	0.515
697.90	0.522
698.66	0.521
699.41	0.528
700.16	0.523
700.92	0.520
701.67	0.526
702.43	0.524
703.18	0.522
703.93	0.518
704.69	0.521
705.44	0.526
706.19	0.526
706.95	0.527
707.70	0.529
708.45	0.526
709.21	0.530
709.96	0.528
710.71	0.526
711.47	0.525
712.22	0.521
712.97	0.521
713.73	0.517
714.48	0.520
715.23	0.521
715.98	0.520
716.74	0.522
717.49	0.521
718.24	0.519
718.99	0.522
719.75	0.521
720.50	0.520
721.25	0.524
722.00	0.523
722.75	0.523
723.50	0.525
724.26	0.530
725.01	0.529
725.76	0.532
726.51	0.529
727.26	0.532
728.01	0.531
728.77	0.529
729.52	0.531
730.27	0.527
731.02	0.533
731.77	0.535
732.52	0.528
733.27	0.522
734.02	0.518
734.77	0.519
735.52	0.519
736.27	0.520
737.02	0.524
737.77	0.525
738.53	0.525
739.28	0.519
740.03	0.518
740.78	0.520
741.53	0.520
742.28	0.526
743.03	0.529
743.77	0.525
744.52	0.516
745.27	0.522
746.02	0.520
746.77	0.520
747.52	0.521
748.27	0.516
749.02	0.521
749.77	0.521
750.52	0.521
751.27	0.524
752.02	0.523
752.77	0.527
753.51	0.528
754.26	0.524
755.01	0.530
755.76	0.525
756.51	0.525
757.26	0.527
758.01	0.523
758.75	0.519
759.50	0.522
760.25	0.525
761.00	0.527
761.75	0.525
762.49	0.524
763.24	0.522
763.99	0.527
764.74	0.526
765.48	0.520
766.23	0.521
766.98	0.525
767.73	0.524
768.47	0.521
769.22	0.517
769.97	0.512
770.72	0.519
771.46	0.528
772.21	0.534
772.96	0.531
773.70	0.531
774.45	0.528
775.20	0.532
775.94	0.527
776.69	0.523
777.44	0.520
778.18	0.521
778.93	0.523
779.67	0.520
780.42	0.522
781.17	0.521
781.91	0.520
782.66	0.525
783.40	0.521
784.15	0.514
784.89	0.524
785.64	0.520
786.39	0.521
787.13	0.523
787.88	0.525
788.62	0.521
789.37	0.522
790.11	0.522
790.86	0.523
791.60	0.519
792.35	0.520
793.09	0.522
793.84	0.527
794.58	0.527
795.32	0.518
796.07	0.514
796.81	0.524
797.56	0.516
798.30	0.521
799.05	0.520
799.79	0.522
800.53	0.527
801.28	0.530
802.02	0.527
802.77	0.522
803.51	0.515
804.25	0.519
805.00	0.522
805.74	0.527
806.48	0.530
807.23	0.531
807.97	0.529
808.71	0.527
809.46	0.521
810.20	0.523
810.94	0.524
811.68	0.526
812.43	0.522
813.17	0.527
813.91	0.526
814.65	0.524
815.40	0.526
816.14	0.525
816.88	0.522
817.62	0.522
818.37	0.524
819.11	0.527
819.85	0.531
820.59	0.533
821.33	0.531
822.08	0.526
822.82	0.523
823.56	0.523
824.30	0.519
825.04	0.517
825.78	0.511
826.52	0.509
827.27	0.512
828.01	0.506
828.75	0.497
829.49	0.500
830.23	0.508
830.97	0.511
831.71	0.516
832.45	0.516
833.19	0.519
833.93	0.522
834.67	0.524
835.41	0.526
836.15	0.525
836.89	0.530
837.63	0.518
838.37	0.520
839.11	0.518
839.85	0.522
840.59	0.522
841.33	0.520
842.07	0.514
842.81	0.519
843.55	0.517
844.29	0.517
845.03	0.514
845.77	0.519
846.51	0.519
847.25	0.523
847.99	0.527
848.73	0.525
849.47	0.522
850.20	0.526
850.94	0.524
851.68	0.521
852.42	0.527
853.16	0.522
853.90	0.524
854.63	0.521
855.37	0.521
856.11	0.525
856.85	0.524
857.59	0.529
858.33	0.522
859.06	0.520
859.80	0.523
860.54	0.527
861.28	0.525
862.01	0.525
862.75	0.522
863.49	0.521
864.23	0.523
864.96	0.524
865.70	0.522
866.44	0.521
867.17	0.518
867.91	0.515
868.65	0.516
869.39	0.522
870.12	0.522
870.86	0.525
871.60	0.527
872.33	0.524
873.07	0.524
873.80	0.526
874.54	0.528
875.28	0.529
876.01	0.532
876.75	0.529
877.48	0.529
878.22	0.528
878.96	0.529
879.69	0.529
880.43	0.528
881.16	0.534
881.90	0.535
882.63	0.537
883.37	0.535
884.10	0.536
884.84	0.528
885.57	0.522
886.31	0.523
887.04	0.530
887.78	0.530
888.51	0.524
889.25	0.519
889.98	0.519
890.72	0.520
891.45	0.526
892.19	0.529
892.92	0.529
893.65	0.526
894.39	0.529
895.12	0.531
895.86	0.528
896.59	0.523
897.32	0.525
898.06	0.530
898.79	0.529
899.53	0.527
900.26	0.526
900.99	0.525
901.73	0.524
902.46	0.520
903.19	0.519
903.93	0.523
904.66	0.525
905.39	0.531
906.12	0.536
906.86	0.537
907.59	0.538
908.32	0.535
909.05	0.538
909.79	0.531
910.52	0.527
911.25	0.527
911.98	0.528
912.72	0.526
913.45	0.531
914.18	0.536
914.91	0.529
915.64	0.527
916.38	0.521
917.11	0.522
917.84	0.521
918.57	0.526
919.30	0.529
920.03	0.531
920.76	0.532
921.50	0.534
922.23	0.529
922.96	0.523
923.69	0.522
924.42	0.522
925.15	0.521
925.88	0.517
926.61	0.512
927.34	0.510
928.07	0.513
928.80	0.517
929.53	0.521
930.26	0.522
930.99	0.527
931.72	0.527
932.45	0.528
933.18	0.531
933.91	0.534
934.64	0.532
935.37	0.528
936.10	0.531
936.83	0.534
937.56	0.533
938.29	0.535
939.02	0.540
939.75	0.538
940.48	0.537
941.21	0.541
941.94	0.542
942.67	0.535
943.40	0.535
944.12	0.533
944.85	0.530
945.58	0.529
946.31	0.532
947.04	0.536
947.77	0.535
948.50	0.535
949.22	0.535
949.95	0.539
950.68	0.539
951.41	0.537
952.14	0.533
952.86	0.532
953.59	0.533
954.32	0.533
955.05	0.532
955.77	0.531
956.50	0.532
957.23	0.539
957.96	0.545
958.68	0.544
959.41	0.541
960.14	0.540
960.86	0.544
961.59	0.546
962.32	0.547
963.04	0.545
963.77	0.541
964.50	0.535
965.22	0.532
965.95	0.531
966.68	0.528
967.40	0.522
968.13	0.520
968.85	0.525
969.58	0.525
970.31	0.522
971.03	0.524
971.76	0.528
972.48	0.528
973.21	0.528
973.93	0.531
974.66	0.532
975.39	0.533
976.11	0.536
976.84	0.538
977.56	0.540
978.29	0.541
979.01	0.541
979.74	0.544
980.46	0.549
981.19	-0.000
981.91	-0.000
982.63	0.250
983.36	-0.231
984.08	0.628
984.81	0.738
985.53	0.563
986.26	0.602
986.98	0.711
987.70	0.623
988.43	0.547
989.15	0.543
989.88	0.542
990.60	0.543
991.32	0.548
992.05	0.546
992.77	0.512
993.49	0.475
994.22	0.490
994.94	0.504
>>>>>End Processed Spectral Data<<<<<
